XY
Wavenumber     
Intensity      
"Start : "194.292
"Stop  : "501.097
S25424s.m3d

501.097   -0.0125
500.805   -0.0291667
500.515   -0.0166667
500.224   0.0458333
499.934   0.0125
499.642   -0.0166667
499.351   0.0291667
499.059   -0.0125
498.769   -0.0125
498.477   0.00833333
498.184   0.0208333
497.893   0.0166667
497.603   0.0166667
497.312   -0.0166667
497.019   0.0166667
496.727   0.0458333
496.437   -1.86265e-09
496.145   -9.31323e-10
495.855   0.0125
495.562   0.0208333
495.271   0.0125
494.979   0.0208333
494.688   0.0166667
494.395   0.0166667
494.104   0.025
493.812   0.0458333
493.521   -0.0208333
493.228   0.025
492.938   0.00416667
492.646   0.00833333
492.354   0.0166667
492.062   0.0416667
491.771   0.0458333
491.479   -1.86265e-09
491.188   0.0875
490.896   0.0166667
490.604   0
490.312   -0.025
490.019   0.0708333
489.729   0.00833333
489.437   0.025
489.145   0.0708333
488.852   0.0625
488.562   0.0375
488.269   0.0458333
487.976   0.0416667
487.685   0.00833333
487.394   0.0958333
487.102   0.258333
486.809   0.529167
486.517   0.9125
486.226   1.40833
485.933   2.10417
485.641   2.77083
485.351   3.25
485.058   3.77083
484.765   4.0875
484.473   4.35417
484.179   4.475
483.888   4.53333
483.597   4.65
483.304   4.74167
483.011   4.70417
482.72   4.8375
482.427   4.8625
482.135   4.89583
481.843   4.75417
481.55   4.7875
481.257   4.75417
480.966   4.8625
480.674   4.8375
480.381   4.7625
480.089   4.87083
479.795   4.65
479.503   4.8125
479.212   4.85
478.919   4.66667
478.626   4.7125
478.334   4.775
478.04   4.74583
477.749   4.88333
477.457   4.70833
477.164   4.82917
476.871   4.775
476.577   4.72917
476.284   4.82083
475.993   4.68333
475.699   4.7375
475.407   4.92083
475.116   4.8
474.823   4.83333
474.53   4.80417
474.238   4.875
473.943   4.9375
473.651   4.77917
473.357   4.825
473.066   4.80417
472.773   4.7625
472.48   4.95833
472.188   4.625
471.895   4.98333
471.601   4.85
471.31   4.83333
471.017   4.84583
470.723   4.9625
470.43   4.91667
470.137   4.925
469.845   4.67917
469.552   4.84167
469.259   4.82083
468.966   4.84167
468.672   5.0625
468.379   4.76667
468.086   4.97917
467.793   4.76667
467.498   5.12917
467.206   4.89583
466.914   4.8875
466.619   4.92083
466.327   4.90833
466.033   4.82917
465.741   4.88333
465.447   4.83333
465.154   4.9125
464.861   5.03333
464.567   5.06667
464.274   4.98333
463.98   5
463.688   4.74583
463.395   4.8875
463.102   4.96667
462.808   4.86667
462.514   4.9375
462.222   4.75833
461.927   4.85
461.634   4.7375
461.339   4.89583
461.048   4.94583
460.752   4.85833
460.46   4.85
460.166   5.03333
459.873   4.89167
459.58   5.04167
459.285   4.84583
458.991   4.80417
458.697   4.85833
458.406   4.7375
458.112   4.88333
457.818   5.09167
457.524   4.86667
457.23   4.86667
456.937   4.85833
456.643   4.87083
456.349   4.79583
456.056   4.75
455.762   4.89167
455.468   4.92083
455.174   4.9
454.88   4.81667
454.585   4.775
454.292   4.9125
453.998   5.00417
453.704   4.925
453.41   4.825
453.116   5.0375
452.823   4.84583
452.529   4.875
452.235   4.65
451.941   4.94167
451.646   4.87917
451.354   4.77083
451.058   5.01667
450.765   4.82083
450.47   4.825
450.177   4.94167
449.883   4.90833
449.588   4.75833
449.293   4.74583
449.001   4.88333
448.705   4.84583
448.41   4.94583
448.117   4.80417
447.823   4.88333
447.529   4.7875
447.234   5.11667
446.94   4.90417
446.645   4.94583
446.352   4.95833
446.058   4.96667
445.764   4.94167
445.468   4.875
445.175   4.875
444.879   4.94167
444.585   4.78333
444.29   4.74167
443.996   4.975
443.703   4.8
443.408   4.90417
443.114   4.90833
442.817   4.85417
442.524   4.8
442.229   4.95833
441.933   4.95
441.641   4.85417
441.345   4.825
441.052   4.89583
440.756   5.05417
440.462   4.97083
440.167   4.78333
439.871   4.9
439.578   5.0625
439.282   5
438.988   4.95417
438.693   4.89167
438.397   4.67917
438.104   4.87083
437.808   4.725
437.515   4.8625
437.219   4.74583
436.924   4.78333
436.63   4.875
436.334   5.07083
436.04   4.95
435.744   4.90417
435.449   4.98333
435.155   4.775
434.859   5.04167
434.566   4.77917
434.27   4.875
433.974   4.6875
433.679   4.82917
433.384   4.78333
433.092   4.8875
432.795   5.02083
432.499   4.975
432.204   4.70417
431.909   4.90417
431.613   5.05833
431.319   4.8875
431.023   4.76667
430.729   4.72917
430.434   4.95833
430.138   4.8125
429.843   4.79583
429.548   4.93333
429.251   4.94583
428.957   4.9375
428.661   4.85833
428.365   5.00417
428.07   4.84583
427.775   4.94167
427.479   4.925
427.186   4.92917
426.889   5.0125
426.593   4.82917
426.299   4.89167
426.003   4.91667
425.706   4.97917
425.411   4.89583
425.116   4.9625
424.821   5.00833
424.526   4.9
424.229   4.95
423.933   5.00417
423.639   4.9375
423.343   4.8625
423.046   5.07083
422.751   4.93333
422.456   5.04167
422.159   4.94583
421.862   4.88333
421.568   4.875
421.272   4.7375
420.976   4.68333
420.682   4.87917
420.385   4.86667
420.089   4.92917
419.794   5.0625
419.498   4.83333
419.201   5.00417
418.904   4.9
418.61   4.77083
418.314   4.62083
418.017   4.86667
417.722   4.8875
417.427   4.7
417.129   4.94167
416.833   5.00833
416.537   4.9625
416.242   5.03333
415.945   4.75
415.649   4.85
415.354   4.95417
415.058   4.775
414.761   4.85
414.466   4.92083
414.17   4.9125
413.872   4.825
413.578   4.83333
413.28   4.83333
412.984   4.80417
412.688   5.075
412.391   4.76667
412.097   4.76667
411.8   4.95833
411.503   4.92083
411.207   4.96667
410.91   4.9625
410.614   4.87917
410.316   4.95833
410.02   4.7
409.725   4.925
409.429   4.8875
409.132   4.70833
408.835   4.94167
408.538   4.72917
408.243   4.80833
407.946   4.8875
407.648   4.85417
407.354   4.88333
407.056   4.70833
406.76   4.74583
406.463   4.925
406.166   4.77917
405.87   4.6125
405.574   4.5875
405.277   4.70833
404.979   4.69583
404.682   4.70833
404.385   4.77083
404.09   5.01667
403.793   4.78333
403.496   4.62917
403.199   4.7
402.902   4.82083
402.606   4.7875
402.309   4.7
402.012   4.70417
401.714   4.71667
401.418   4.8125
401.121   4.80417
400.825   4.8
400.527   4.7125
400.229   4.775
399.933   4.65417
399.636   4.8125
399.339   4.82083
399.043   4.75833
398.745   4.8
398.447   4.84167
398.149   4.8375
397.854   4.7
397.558   4.87917
397.26   4.87917
396.963   4.88333
396.665   4.875
396.367   4.84583
396.07   4.75
395.773   4.84583
395.477   4.775
395.18   4.7625
394.882   4.875
394.584   4.79167
394.287   4.96667
393.99   4.79583
393.692   4.9625
393.396   4.80833
393.099   4.80833
392.8   4.875
392.503   4.85
392.205   4.78333
391.907   4.84583
391.608   4.83333
391.313   4.8875
391.017   4.70833
390.718   4.95833
390.421   4.74583
390.123   5.125
389.825   4.87083
389.526   5.04167
389.23   4.85
388.934   4.94167
388.636   5.0375
388.338   4.86667
388.041   4.89167
387.742   4.925
387.444   4.95
387.146   4.96667
386.849   5
386.552   4.92917
386.253   4.82083
385.956   4.90417
385.658   4.95833
385.361   4.6625
385.063   4.95
384.765   4.7625
384.467   4.90417
384.169   4.80417
383.871   4.87917
383.571   4.725
383.273   4.69583
382.977   4.9
382.679   4.82917
382.381   4.6125
382.082   4.74167
381.784   4.6375
381.487   4.84583
381.189   4.62917
380.892   4.675
380.593   4.72083
380.294   4.67917
379.996   4.86667
379.698   4.77083
379.399   4.66667
379.102   4.74167
378.803   4.76667
378.505   4.73333
378.206   4.70417
377.908   4.55
377.609   4.70833
377.312   4.9875
377.015   4.54583
376.716   4.66667
376.418   4.62083
376.12   4.5875
375.822   4.80833
375.523   4.875
375.225   4.68333
374.927   4.8625
374.628   4.59583
374.329   4.7375
374.03   4.725
373.732   4.50417
373.434   4.725
373.135   4.5625
372.836   4.7625
372.538   4.75417
372.239   4.60417
371.94   4.6375
371.642   4.74167
371.344   4.65833
371.045   4.60833
370.746   4.77083
370.447   4.67917
370.149   4.57917
369.85   4.6875
369.551   4.67083
369.253   4.85
368.954   4.6625
368.654   4.69167
368.356   4.76667
368.058   4.75833
367.759   4.76667
367.46   4.49167
367.161   4.72083
366.862   4.66667
366.563   4.6875
366.265   4.775
365.966   4.625
365.667   4.7
365.367   4.63333
365.069   4.74167
364.77   4.56667
364.47   4.54167
364.172   4.79583
363.873   4.47917
363.574   4.69167
363.273   4.74167
362.975   4.78333
362.677   4.5875
362.375   4.75
362.077   4.69583
361.779   4.68333
361.479   4.55833
361.18   4.5625
360.881   4.74167
360.581   4.70833
360.282   4.68333
359.983   4.44583
359.685   4.725
359.385   4.50417
359.086   4.475
358.787   4.65833
358.488   4.6
358.187   4.66667
357.886   4.55417
357.587   4.82083
357.289   4.6875
356.989   4.52083
356.688   4.6375
356.39   4.73333
356.091   4.69167
355.791   4.66667
355.492   4.62917
355.193   4.67083
354.894   4.62917
354.594   4.78333
354.294   4.52083
353.995   4.65417
353.693   4.55417
353.395   4.48333
353.094   4.375
352.795   4.4125
352.496   4.60833
352.197   4.62083
351.896   4.66667
351.597   4.50833
351.296   4.675
350.997   4.58333
350.698   4.44167
350.396   4.47083
350.098   4.6125
349.798   4.59167
349.498   4.55
349.198   4.64167
348.898   4.57917
348.598   4.65417
348.298   4.62083
347.997   4.6
347.698   4.6
347.398   4.64583
347.1   4.6
346.799   4.57917
346.499   4.70833
346.198   4.55
345.897   4.45417
345.598   4.52083
345.298   4.5625
344.998   4.57917
344.698   4.63333
344.397   4.7
344.096   4.55417
343.796   4.68333
343.496   4.6375
343.197   4.64583
342.896   4.62083
342.596   4.65417
342.296   4.65417
341.995   4.64167
341.695   4.54167
341.395   4.35417
341.095   4.56667
340.793   4.54167
340.493   4.66667
340.193   4.5875
339.893   4.49583
339.593   4.5375
339.291   4.55833
338.99   4.6
338.69   4.525
338.39   4.5375
338.09   4.67083
337.79   4.575
337.488   4.64583
337.188   4.59167
336.887   4.62083
336.587   4.49583
336.285   4.7375
335.985   4.55
335.686   4.48333
335.384   4.75417
335.084   4.55833
334.781   4.60833
334.481   4.75417
334.18   4.77917
333.88   4.5125
333.58   4.5
333.28   4.57083
332.977   4.55833
332.676   4.6125
332.376   4.60417
332.076   4.5875
331.776   4.55833
331.473   4.425
331.172   4.67917
330.872   4.72083
330.57   4.53333
330.269   4.50417
329.969   4.69167
329.668   4.44583
329.367   4.63333
329.065   4.6375
328.765   4.61667
328.463   4.54167
328.163   4.53333
327.859   4.47917
327.56   4.62083
327.26   4.45417
326.958   4.65417
326.654   4.80417
326.354   4.625
326.055   4.60417
325.752   4.5125
325.452   4.53333
325.149   4.44167
324.85   4.59583
324.549   4.54167
324.247   4.4625
323.945   4.52917
323.644   4.5875
323.343   4.64583
323.04   4.61667
322.74   4.5625
322.439   4.7625
322.136   4.60417
321.834   4.575
321.534   4.575
321.233   4.69167
320.932   4.7625
320.63   4.7375
320.328   4.69167
320.026   4.52917
319.724   4.69167
319.424   4.625
319.121   4.8375
318.818   4.56667
318.518   4.76667
318.217   4.6625
317.914   4.67083
317.613   4.8
317.312   4.77083
317.008   4.64167
316.707   4.69167
316.406   4.66667
316.104   4.67917
315.802   4.82917
315.501   4.7375
315.199   4.83333
314.896   4.72083
314.596   4.69583
314.293   4.84583
313.991   4.6125
313.689   4.825
313.388   4.85417
313.084   4.78333
312.784   4.8375
312.483   4.9125
312.179   5.00833
311.877   4.79583
311.575   4.94167
311.272   4.90833
310.972   4.8625
310.669   4.90833
310.367   4.89167
310.064   4.88333
309.763   5.1375
309.46   4.97917
309.159   5.05833
308.854   5.125
308.554   5.00417
308.252   5
307.95   5.06667
307.647   5.15833
307.344   5.2625
307.042   5.25417
306.741   5.15833
306.437   5.15833
306.135   5.21667
305.834   5.10417
305.529   5.34583
305.229   5.63333
304.925   5.46667
304.623   5.625
304.321   5.62917
304.019   5.84167
303.716   5.83333
303.414   6.2125
303.11   6.17083
302.808   6.50417
302.506   6.57083
302.202   6.74583
301.901   7.02083
301.597   7.375
301.296   7.4
300.992   7.25
300.688   7.77083
300.387   7.68333
300.083   7.63333
299.782   7.25
299.479   7.31667
299.176   7.275
298.874   7
298.569   6.675
298.268   6.57917
297.964   6.17917
297.662   6.24167
297.361   5.86667
297.057   6.15
296.754   5.70417
296.449   5.54583
296.147   5.68333
295.843   5.57917
295.542   5.75
295.24   5.53333
294.936   5.6875
294.633   5.5
294.328   5.63333
294.027   5.82917
293.722   5.75833
293.421   5.82083
293.117   6.08333
292.814   5.98333
292.511   5.95417
292.207   6.12083
291.904   6.51667
291.601   6.47083
291.298   6.8
290.995   6.9125
290.692   7.24583
290.389   7.54167
290.085   7.9125
289.782   8.17917
289.479   9.04583
289.174   9.30417
288.872   9.60833
288.568   10.4167
288.266   10.6
287.961   11.35
287.657   11.5208
287.354   12.1792
287.051   12.6417
286.749   12.5917
286.443   12.7708
286.142   12.7375
285.837   12.3875
285.534   12.0333
285.229   11.6708
284.926   11.0083
284.622   10.4375
284.32   10.0333
284.015   9.3
283.711   8.80417
283.408   8.1375
283.104   8
282.8   7.675
282.498   7.1625
282.192   6.73333
281.891   6.4875
281.586   6.32083
281.281   6.0875
280.979   5.94167
280.674   5.78333
280.37   5.8125
280.066   5.6875
279.763   5.7375
279.459   5.50417
279.155   5.5375
278.85   5.22917
278.548   5.33333
278.243   5.2625
277.939   5.12917
277.634   5.1875
277.332   5.17083
277.026   5.25
276.724   5.27083
276.419   5.1125
276.114   4.98333
275.811   5.04167
275.507   5.12917
275.203   5.0375
274.897   5.15
274.595   5.19167
274.289   5.1875
273.985   5.025
273.681   5.475
273.379   5.27917
273.073   5.45
272.769   5.35
272.465   5.19167
272.159   5.49167
271.856   5.42083
271.551   5.70417
271.248   5.69583
270.942   5.87083
270.638   6.24167
270.334   6.175
270.028   6.125
269.724   6.5625
269.42   6.52917
269.117   6.66667
268.812   7.05833
268.508   6.99583
268.203   7.31667
267.896   7.11667
267.592   7.15417
267.289   7.2375
266.983   7.1
266.681   6.97917
266.374   6.77083
266.069   6.8125
265.765   6.60417
265.459   6.48333
265.156   6.40417
264.851   5.9375
264.548   5.93333
264.242   6.10833
263.936   5.86667
263.633   5.85417
263.327   5.69583
263.022   5.60417
262.718   5.75833
262.411   5.74583
262.107   5.6375
261.803   5.5875
261.496   5.6875
261.193   5.72083
260.888   5.71667
260.583   5.8125
260.278   5.71667
259.973   5.77083
259.669   5.94583
259.363   5.82917
259.058   6.0625
258.753   6.075
258.447   6.20833
258.141   6.28333
257.838   6.42083
257.532   6.45
257.226   6.58333
256.923   6.5625
256.616   6.67083
256.312   6.61667
256.007   6.65
255.701   6.52917
255.396   6.57917
255.091   6.45
254.784   6.30833
254.479   6.25417
254.175   6.06667
253.868   5.92083
253.564   5.8125
253.259   5.74583
252.952   5.675
252.646   5.6
252.343   5.375
252.036   5.36667
251.731   5.20833
251.426   5.19167
251.119   5.18333
250.812   5.125
250.51   5.3
250.203   5.125
249.896   5.07917
249.593   4.9375
249.286   4.88333
248.98   5.19167
248.675   4.875
248.368   5.09583
248.063   4.9125
247.758   4.91667
247.451   5.10417
247.146   4.9625
246.84   4.85417
246.535   4.86667
246.229   4.675
245.923   4.71667
245.618   4.85833
245.312   4.52917
245.006   4.64167
244.699   4.7875
244.395   4.65
244.088   4.80417
243.782   4.52917
243.475   4.56667
243.169   4.54167
242.864   4.8125
242.558   4.7125
242.251   4.6
241.946   4.52083
241.64   4.4625
241.334   4.6
241.026   4.7125
240.722   4.60417
240.415   4.5875
240.108   4.55833
239.801   4.6375
239.496   4.75417
239.19   4.3625
238.884   4.63333
238.576   4.62083
238.271   4.55833
237.966   4.6875
237.659   4.63333
237.352   4.7375
237.048   4.625
236.741   4.6
236.434   4.68333
236.127   4.725
235.821   4.67083
235.514   4.75
235.208   4.40417
234.901   4.63333
234.595   4.76667
234.288   4.42083
233.982   4.59583
233.675   4.6
233.368   4.40833
233.061   4.71667
232.756   4.8625
232.449   4.6375
232.143   4.72083
231.835   4.825
231.53   4.525
231.223   4.45
230.916   4.64583
230.609   4.7
230.302   4.73333
229.994   4.52083
229.688   4.68333
229.383   4.60417
229.075   4.63333
228.769   4.77917
228.462   4.63333
228.156   4.7875
227.85   4.69167
227.542   4.6875
227.234   4.67917
226.927   4.77083
226.619   4.575
226.312   4.70833
226.007   4.74167
225.699   4.80417
225.392   4.85417
225.084   4.78333
224.778   4.78333
224.471   4.68333
224.164   4.85417
223.857   4.775
223.55   4.79583
223.241   4.69583
222.934   4.84583
222.629   4.83333
222.321   4.51667
222.015   4.6625
221.707   4.8125
221.399   4.60833
221.091   4.65
220.783   4.57917
220.476   4.55833
220.172   4.57917
219.863   4.39167
219.556   4.52083
219.248   4.67083
218.94   4.65833
218.634   4.45417
218.326   4.375
218.018   4.65417
217.712   4.57917
217.404   4.74583
217.097   4.61667
216.789   4.62083
216.48   4.62083
216.173   4.60833
215.865   4.4875
215.558   4.63333
215.25   4.5625
214.944   4.51667
214.637   4.67083
214.328   4.5625
214.021   4.70833
213.712   4.54583
213.404   4.51667
213.098   4.62917
212.789   4.4875
212.481   4.49167
212.173   4.60833
211.867   4.55
211.56   4.65417
211.251   4.60417
210.943   4.65
210.635   4.77083
210.327   4.5375
210.019   4.61667
209.712   4.58333
209.403   4.63333
209.095   4.72083
208.787   4.99583
208.479   5
208.173   4.63333
207.864   4.83333
207.556   4.80417
207.248   4.8875
206.939   4.79167
206.631   5.13333
206.323   5.03333
206.015   4.99167
205.707   5.02083
205.397   4.94167
205.09   5.10833
204.781   5.15417
204.474   5.1125
204.167   5.1625
203.857   5.23333
203.549   5.30833
203.24   5.38333
202.934   5.25
202.626   5.1375
202.314   5.38333
202.009   5.225
201.7   5.2625
201.392   5.24583
201.083   5.17917
200.774   5.14167
200.466   4.8875
200.157   4.475
199.849   3.91667
199.54   3.275
199.231   2.6625
198.923   2.05833
198.614   1.5375
198.306   1.07917
197.997   0.804167
197.688   0.541667
197.38   0.4125
197.071   0.395833
196.763   0.241667
196.453   0.195833
196.145   0.1625
195.836   0.158333
195.527   0.195833
195.219   0.0708333
194.91   0.170833
194.601   0.141667
194.292   0.141667
